Apr. 7, 2019   12:02:17
Chronopotentiometry
File: D:\process\data\cp1.bin.txt
Data Source:  Experiment
Instrument Model:  CHI900D
Header: 
Note: 

Cathodic Current (A) = 2e-6
Anodic Current (A) = 2e-6
Init P/N = N
Data Storage Interval (s) = 0.01
High E Limit (V) = 0.5
Low E Limit (V) = -0.1
Cathodic Time (s) = 10
Anodic Time (s) = 10
Current Switching Polarity = Potential
Segment = 6

Time/sec, Potential/V

1.000e-2, 2.004e-1
2.000e-2, 1.988e-1
3.000e-2, 1.976e-1
4.000e-2, 1.964e-1
5.000e-2, 1.954e-1
6.000e-2, 1.945e-1
7.000e-2, 1.936e-1
8.000e-2, 1.927e-1
9.000e-2, 1.919e-1
1.000e-1, 1.911e-1
1.100e-1, 1.904e-1
1.200e-1, 1.896e-1
1.300e-1, 1.889e-1
1.400e-1, 1.882e-1
1.500e-1, 1.876e-1
1.600e-1, 1.869e-1
1.700e-1, 1.863e-1
1.800e-1, 1.856e-1
1.900e-1, 1.850e-1
2.000e-1, 1.844e-1
2.100e-1, 1.838e-1
2.200e-1, 1.832e-1
2.300e-1, 1.826e-1
2.400e-1, 1.821e-1
2.500e-1, 1.815e-1
2.600e-1, 1.809e-1
2.700e-1, 1.803e-1
2.800e-1, 1.798e-1
2.900e-1, 1.792e-1
3.000e-1, 1.787e-1
3.100e-1, 1.781e-1
3.200e-1, 1.776e-1
3.300e-1, 1.770e-1
3.400e-1, 1.765e-1
3.500e-1, 1.760e-1
3.600e-1, 1.754e-1
3.700e-1, 1.749e-1
3.800e-1, 1.744e-1
3.900e-1, 1.738e-1
4.000e-1, 1.733e-1
4.100e-1, 1.728e-1
4.200e-1, 1.722e-1
4.300e-1, 1.717e-1
4.400e-1, 1.712e-1
4.500e-1, 1.707e-1
4.600e-1, 1.702e-1
4.700e-1, 1.696e-1
4.800e-1, 1.691e-1
4.900e-1, 1.686e-1
5.000e-1, 1.681e-1
5.100e-1, 1.676e-1
5.200e-1, 1.670e-1
5.300e-1, 1.665e-1
5.400e-1, 1.660e-1
5.500e-1, 1.655e-1
5.600e-1, 1.649e-1
5.700e-1, 1.644e-1
5.800e-1, 1.639e-1
5.900e-1, 1.634e-1
6.000e-1, 1.628e-1
6.100e-1, 1.623e-1
6.200e-1, 1.618e-1
6.300e-1, 1.612e-1
6.400e-1, 1.607e-1
6.500e-1, 1.602e-1
6.600e-1, 1.596e-1
6.700e-1, 1.591e-1
6.800e-1, 1.585e-1
6.900e-1, 1.580e-1
7.000e-1, 1.574e-1
7.100e-1, 1.569e-1
7.200e-1, 1.563e-1
7.300e-1, 1.558e-1
7.400e-1, 1.552e-1
7.500e-1, 1.547e-1
7.600e-1, 1.541e-1
7.700e-1, 1.536e-1
7.800e-1, 1.530e-1
7.900e-1, 1.524e-1
8.000e-1, 1.519e-1
8.100e-1, 1.513e-1
8.200e-1, 1.507e-1
8.300e-1, 1.501e-1
8.400e-1, 1.495e-1
8.500e-1, 1.489e-1
8.600e-1, 1.483e-1
8.700e-1, 1.478e-1
8.800e-1, 1.472e-1
8.900e-1, 1.465e-1
9.000e-1, 1.459e-1
9.100e-1, 1.453e-1
9.200e-1, 1.447e-1
9.300e-1, 1.441e-1
9.400e-1, 1.435e-1
9.500e-1, 1.428e-1
9.600e-1, 1.422e-1
9.700e-1, 1.416e-1
9.800e-1, 1.409e-1
9.900e-1, 1.403e-1
1.000e+0, 1.396e-1
1.010e+0, 1.390e-1
1.020e+0, 1.383e-1
1.030e+0, 1.377e-1
1.040e+0, 1.370e-1
1.050e+0, 1.363e-1
1.060e+0, 1.356e-1
1.070e+0, 1.350e-1
1.080e+0, 1.343e-1
1.090e+0, 1.336e-1
1.100e+0, 1.329e-1
1.110e+0, 1.321e-1
1.120e+0, 1.314e-1
1.130e+0, 1.307e-1
1.140e+0, 1.300e-1
1.150e+0, 1.293e-1
1.160e+0, 1.285e-1
1.170e+0, 1.278e-1
1.180e+0, 1.270e-1
1.190e+0, 1.262e-1
1.200e+0, 1.255e-1
1.210e+0, 1.247e-1
1.220e+0, 1.239e-1
1.230e+0, 1.231e-1
1.240e+0, 1.224e-1
1.250e+0, 1.216e-1
1.260e+0, 1.207e-1
1.270e+0, 1.199e-1
1.280e+0, 1.191e-1
1.290e+0, 1.183e-1
1.300e+0, 1.174e-1
1.310e+0, 1.166e-1
1.320e+0, 1.157e-1
1.330e+0, 1.149e-1
1.340e+0, 1.140e-1
1.350e+0, 1.131e-1
1.360e+0, 1.122e-1
1.370e+0, 1.113e-1
1.380e+0, 1.104e-1
1.390e+0, 1.095e-1
1.400e+0, 1.086e-1
1.410e+0, 1.076e-1
1.420e+0, 1.067e-1
1.430e+0, 1.057e-1
1.440e+0, 1.048e-1
1.450e+0, 1.038e-1
1.460e+0, 1.028e-1
1.470e+0, 1.018e-1
1.480e+0, 1.008e-1
1.490e+0, 9.980e-2
1.500e+0, 9.877e-2
1.510e+0, 9.774e-2
1.520e+0, 9.669e-2
1.530e+0, 9.563e-2
1.540e+0, 9.457e-2
1.550e+0, 9.349e-2
1.560e+0, 9.240e-2
1.570e+0, 9.131e-2
1.580e+0, 9.020e-2
1.590e+0, 8.908e-2
1.600e+0, 8.796e-2
1.610e+0, 8.681e-2
1.620e+0, 8.565e-2
1.630e+0, 8.449e-2
1.640e+0, 8.332e-2
1.650e+0, 8.213e-2
1.660e+0, 8.093e-2
1.670e+0, 7.972e-2
1.680e+0, 7.849e-2
1.690e+0, 7.726e-2
1.700e+0, 7.602e-2
1.710e+0, 7.478e-2
1.720e+0, 7.352e-2
1.730e+0, 7.224e-2
1.740e+0, 7.095e-2
1.750e+0, 6.965e-2
1.760e+0, 6.834e-2
1.770e+0, 6.703e-2
1.780e+0, 6.570e-2
1.790e+0, 6.436e-2
1.800e+0, 6.300e-2
1.810e+0, 6.165e-2
1.820e+0, 6.028e-2
1.830e+0, 5.891e-2
1.840e+0, 5.752e-2
1.850e+0, 5.613e-2
1.860e+0, 5.472e-2
1.870e+0, 5.331e-2
1.880e+0, 5.188e-2
1.890e+0, 5.045e-2
1.900e+0, 4.901e-2
1.910e+0, 4.757e-2
1.920e+0, 4.611e-2
1.930e+0, 4.465e-2
1.940e+0, 4.318e-2
1.950e+0, 4.171e-2
1.960e+0, 4.023e-2
1.970e+0, 3.873e-2
1.980e+0, 3.725e-2
1.990e+0, 3.574e-2
2.000e+0, 3.424e-2
2.010e+0, 3.273e-2
2.020e+0, 3.121e-2
2.030e+0, 2.969e-2
2.040e+0, 2.817e-2
2.050e+0, 2.665e-2
2.060e+0, 2.511e-2
2.070e+0, 2.357e-2
2.080e+0, 2.203e-2
2.090e+0, 2.049e-2
2.100e+0, 1.895e-2
2.110e+0, 1.740e-2
2.120e+0, 1.584e-2
2.130e+0, 1.429e-2
2.140e+0, 1.274e-2
2.150e+0, 1.119e-2
2.160e+0, 9.630e-3
2.170e+0, 8.063e-3
2.180e+0, 6.506e-3
2.190e+0, 4.940e-3
2.200e+0, 3.379e-3
2.210e+0, 1.819e-3
2.220e+0, 2.372e-4
2.230e+0, -1.335e-3
2.240e+0, -2.896e-3
2.250e+0, -4.457e-3
2.260e+0, -6.023e-3
2.270e+0, -7.589e-3
2.280e+0, -9.162e-3
2.290e+0, -1.073e-2
2.300e+0, -1.229e-2
2.310e+0, -1.385e-2
2.320e+0, -1.542e-2
2.330e+0, -1.698e-2
2.340e+0, -1.854e-2
2.350e+0, -2.010e-2
2.360e+0, -2.166e-2
2.370e+0, -2.322e-2
2.380e+0, -2.478e-2
2.390e+0, -2.633e-2
2.400e+0, -2.789e-2
2.410e+0, -2.944e-2
2.420e+0, -3.099e-2
2.430e+0, -3.254e-2
2.440e+0, -3.409e-2
2.450e+0, -3.563e-2
2.460e+0, -3.716e-2
2.470e+0, -3.871e-2
2.480e+0, -4.025e-2
2.490e+0, -4.179e-2
2.500e+0, -4.332e-2
2.510e+0, -4.485e-2
2.520e+0, -4.638e-2
2.530e+0, -4.791e-2
2.540e+0, -4.943e-2
2.550e+0, -5.095e-2
2.560e+0, -5.246e-2
2.570e+0, -5.397e-2
2.580e+0, -5.549e-2
2.590e+0, -5.700e-2
2.600e+0, -5.851e-2
2.610e+0, -6.001e-2
2.620e+0, -6.150e-2
2.630e+0, -6.302e-2
2.640e+0, -6.450e-2
2.650e+0, -6.599e-2
2.660e+0, -6.747e-2
2.670e+0, -6.895e-2
2.680e+0, -7.043e-2
2.690e+0, -7.191e-2
2.700e+0, -7.338e-2
2.710e+0, -7.485e-2
2.720e+0, -7.631e-2
2.730e+0, -7.777e-2
2.740e+0, -7.923e-2
2.750e+0, -8.068e-2
2.760e+0, -8.213e-2
2.770e+0, -8.357e-2
2.780e+0, -8.500e-2
2.790e+0, -8.644e-2
2.800e+0, -8.787e-2
2.810e+0, -8.930e-2
2.820e+0, -9.073e-2
2.830e+0, -9.214e-2
2.840e+0, -9.355e-2
2.850e+0, -9.497e-2
2.860e+0, -9.637e-2
2.870e+0, -9.777e-2
2.880e+0, -9.916e-2
2.890e+0, -7.382e-2
2.900e+0, -4.064e-2
2.910e+0, -1.489e-2
2.920e+0, 6.948e-3
2.930e+0, 2.607e-2
2.940e+0, 4.302e-2
2.950e+0, 5.802e-2
2.960e+0, 7.123e-2
2.970e+0, 8.275e-2
2.980e+0, 9.272e-2
2.990e+0, 1.013e-1
3.000e+0, 1.087e-1
3.010e+0, 1.152e-1
3.020e+0, 1.209e-1
3.030e+0, 1.258e-1
3.040e+0, 1.303e-1
3.050e+0, 1.342e-1
3.060e+0, 1.378e-1
3.070e+0, 1.410e-1
3.080e+0, 1.440e-1
3.090e+0, 1.467e-1
3.100e+0, 1.492e-1
3.110e+0, 1.516e-1
3.120e+0, 1.537e-1
3.130e+0, 1.558e-1
3.140e+0, 1.577e-1
3.150e+0, 1.595e-1
3.160e+0, 1.612e-1
3.170e+0, 1.628e-1
3.180e+0, 1.643e-1
3.190e+0, 1.657e-1
3.200e+0, 1.671e-1
3.210e+0, 1.684e-1
3.220e+0, 1.697e-1
3.230e+0, 1.709e-1
3.240e+0, 1.720e-1
3.250e+0, 1.731e-1
3.260e+0, 1.742e-1
3.270e+0, 1.752e-1
3.280e+0, 1.762e-1
3.290e+0, 1.772e-1
3.300e+0, 1.781e-1
3.310e+0, 1.790e-1
3.320e+0, 1.799e-1
3.330e+0, 1.808e-1
3.340e+0, 1.816e-1
3.350e+0, 1.824e-1
3.360e+0, 1.832e-1
3.370e+0, 1.839e-1
3.380e+0, 1.847e-1
3.390e+0, 1.854e-1
3.400e+0, 1.861e-1
3.410e+0, 1.868e-1
3.420e+0, 1.875e-1
3.430e+0, 1.881e-1
3.440e+0, 1.888e-1
3.450e+0, 1.894e-1
3.460e+0, 1.901e-1
3.470e+0, 1.907e-1
3.480e+0, 1.913e-1
3.490e+0, 1.919e-1
3.500e+0, 1.925e-1
3.510e+0, 1.930e-1
3.520e+0, 1.936e-1
3.530e+0, 1.941e-1
3.540e+0, 1.947e-1
3.550e+0, 1.952e-1
3.560e+0, 1.957e-1
3.570e+0, 1.962e-1
3.580e+0, 1.968e-1
3.590e+0, 1.973e-1
3.600e+0, 1.978e-1
3.610e+0, 1.983e-1
3.620e+0, 1.987e-1
3.630e+0, 1.992e-1
3.640e+0, 1.997e-1
3.650e+0, 2.001e-1
3.660e+0, 2.006e-1
3.670e+0, 2.011e-1
3.680e+0, 2.015e-1
3.690e+0, 2.019e-1
3.700e+0, 2.024e-1
3.710e+0, 2.028e-1
3.720e+0, 2.032e-1
3.730e+0, 2.037e-1
3.740e+0, 2.041e-1
3.750e+0, 2.045e-1
3.760e+0, 2.049e-1
3.770e+0, 2.053e-1
3.780e+0, 2.057e-1
3.790e+0, 2.061e-1
3.800e+0, 2.065e-1
3.810e+0, 2.069e-1
3.820e+0, 2.073e-1
3.830e+0, 2.077e-1
3.840e+0, 2.081e-1
3.850e+0, 2.085e-1
3.860e+0, 2.088e-1
3.870e+0, 2.092e-1
3.880e+0, 2.096e-1
3.890e+0, 2.100e-1
3.900e+0, 2.103e-1
3.910e+0, 2.107e-1
3.920e+0, 2.110e-1
3.930e+0, 2.114e-1
3.940e+0, 2.118e-1
3.950e+0, 2.121e-1
3.960e+0, 2.125e-1
3.970e+0, 2.128e-1
3.980e+0, 2.132e-1
3.990e+0, 2.135e-1
4.000e+0, 2.139e-1
4.010e+0, 2.142e-1
4.020e+0, 2.145e-1
4.030e+0, 2.149e-1
4.040e+0, 2.152e-1
4.050e+0, 2.155e-1
4.060e+0, 2.159e-1
4.070e+0, 2.162e-1
4.080e+0, 2.165e-1
4.090e+0, 2.169e-1
4.100e+0, 2.172e-1
4.110e+0, 2.175e-1
4.120e+0, 2.178e-1
4.130e+0, 2.182e-1
4.140e+0, 2.185e-1
4.150e+0, 2.188e-1
4.160e+0, 2.191e-1
4.170e+0, 2.194e-1
4.180e+0, 2.197e-1
4.190e+0, 2.201e-1
4.200e+0, 2.204e-1
4.210e+0, 2.207e-1
4.220e+0, 2.210e-1
4.230e+0, 2.213e-1
4.240e+0, 2.216e-1
4.250e+0, 2.219e-1
4.260e+0, 2.222e-1
4.270e+0, 2.225e-1
4.280e+0, 2.228e-1
4.290e+0, 2.231e-1
4.300e+0, 2.234e-1
4.310e+0, 2.238e-1
4.320e+0, 2.241e-1
4.330e+0, 2.243e-1
4.340e+0, 2.247e-1
4.350e+0, 2.249e-1
4.360e+0, 2.253e-1
4.370e+0, 2.256e-1
4.380e+0, 2.259e-1
4.390e+0, 2.261e-1
4.400e+0, 2.264e-1
4.410e+0, 2.267e-1
4.420e+0, 2.270e-1
4.430e+0, 2.273e-1
4.440e+0, 2.276e-1
4.450e+0, 2.279e-1
4.460e+0, 2.282e-1
4.470e+0, 2.285e-1
4.480e+0, 2.288e-1
4.490e+0, 2.291e-1
4.500e+0, 2.294e-1
4.510e+0, 2.297e-1
4.520e+0, 2.300e-1
4.530e+0, 2.303e-1
4.540e+0, 2.306e-1
4.550e+0, 2.308e-1
4.560e+0, 2.311e-1
4.570e+0, 2.314e-1
4.580e+0, 2.317e-1
4.590e+0, 2.320e-1
4.600e+0, 2.323e-1
4.610e+0, 2.326e-1
4.620e+0, 2.329e-1
4.630e+0, 2.332e-1
4.640e+0, 2.334e-1
4.650e+0, 2.337e-1
4.660e+0, 2.340e-1
4.670e+0, 2.343e-1
4.680e+0, 2.346e-1
4.690e+0, 2.349e-1
4.700e+0, 2.352e-1
4.710e+0, 2.355e-1
4.720e+0, 2.358e-1
4.730e+0, 2.361e-1
4.740e+0, 2.364e-1
4.750e+0, 2.366e-1
4.760e+0, 2.369e-1
4.770e+0, 2.372e-1
4.780e+0, 2.375e-1
4.790e+0, 2.378e-1
4.800e+0, 2.381e-1
4.810e+0, 2.384e-1
4.820e+0, 2.387e-1
4.830e+0, 2.390e-1
4.840e+0, 2.393e-1
4.850e+0, 2.396e-1
4.860e+0, 2.399e-1
4.870e+0, 2.402e-1
4.880e+0, 2.405e-1
4.890e+0, 2.407e-1
4.900e+0, 2.410e-1
4.910e+0, 2.413e-1
4.920e+0, 2.416e-1
4.930e+0, 2.419e-1
4.940e+0, 2.422e-1
4.950e+0, 2.425e-1
4.960e+0, 2.428e-1
4.970e+0, 2.431e-1
4.980e+0, 2.434e-1
4.990e+0, 2.437e-1
5.000e+0, 2.440e-1
5.010e+0, 2.443e-1
5.020e+0, 2.446e-1
5.030e+0, 2.449e-1
5.040e+0, 2.453e-1
5.050e+0, 2.456e-1
5.060e+0, 2.459e-1
5.070e+0, 2.462e-1
5.080e+0, 2.465e-1
5.090e+0, 2.468e-1
5.100e+0, 2.471e-1
5.110e+0, 2.474e-1
5.120e+0, 2.477e-1
5.130e+0, 2.480e-1
5.140e+0, 2.483e-1
5.150e+0, 2.487e-1
5.160e+0, 2.490e-1
5.170e+0, 2.493e-1
5.180e+0, 2.496e-1
5.190e+0, 2.499e-1
5.200e+0, 2.502e-1
5.210e+0, 2.506e-1
5.220e+0, 2.509e-1
5.230e+0, 2.512e-1
5.240e+0, 2.515e-1
5.250e+0, 2.519e-1
5.260e+0, 2.522e-1
5.270e+0, 2.525e-1
5.280e+0, 2.529e-1
5.290e+0, 2.532e-1
5.300e+0, 2.535e-1
5.310e+0, 2.539e-1
5.320e+0, 2.542e-1
5.330e+0, 2.545e-1
5.340e+0, 2.549e-1
5.350e+0, 2.552e-1
5.360e+0, 2.556e-1
5.370e+0, 2.559e-1
5.380e+0, 2.562e-1
5.390e+0, 2.566e-1
5.400e+0, 2.569e-1
5.410e+0, 2.573e-1
5.420e+0, 2.576e-1
5.430e+0, 2.580e-1
5.440e+0, 2.584e-1
5.450e+0, 2.587e-1
5.460e+0, 2.591e-1
5.470e+0, 2.594e-1
5.480e+0, 2.598e-1
5.490e+0, 2.602e-1
5.500e+0, 2.605e-1
5.510e+0, 2.609e-1
5.520e+0, 2.613e-1
5.530e+0, 2.617e-1
5.540e+0, 2.620e-1
5.550e+0, 2.624e-1
5.560e+0, 2.628e-1
5.570e+0, 2.632e-1
5.580e+0, 2.636e-1
5.590e+0, 2.640e-1
5.600e+0, 2.644e-1
5.610e+0, 2.647e-1
5.620e+0, 2.651e-1
5.630e+0, 2.655e-1
5.640e+0, 2.659e-1
5.650e+0, 2.663e-1
5.660e+0, 2.668e-1
5.670e+0, 2.672e-1
5.680e+0, 2.676e-1
5.690e+0, 2.680e-1
5.700e+0, 2.684e-1
5.710e+0, 2.689e-1
5.720e+0, 2.693e-1
5.730e+0, 2.697e-1
5.740e+0, 2.702e-1
5.750e+0, 2.706e-1
5.760e+0, 2.710e-1
5.770e+0, 2.715e-1
5.780e+0, 2.719e-1
5.790e+0, 2.724e-1
5.800e+0, 2.728e-1
5.810e+0, 2.733e-1
5.820e+0, 2.738e-1
5.830e+0, 2.742e-1
5.840e+0, 2.747e-1
5.850e+0, 2.752e-1
5.860e+0, 2.757e-1
5.870e+0, 2.762e-1
5.880e+0, 2.766e-1
5.890e+0, 2.771e-1
5.900e+0, 2.776e-1
5.910e+0, 2.781e-1
5.920e+0, 2.787e-1
5.930e+0, 2.792e-1
5.940e+0, 2.797e-1
5.950e+0, 2.802e-1
5.960e+0, 2.807e-1
5.970e+0, 2.813e-1
5.980e+0, 2.818e-1
5.990e+0, 2.824e-1
6.000e+0, 2.829e-1
6.010e+0, 2.835e-1
6.020e+0, 2.840e-1
6.030e+0, 2.846e-1
6.040e+0, 2.852e-1
6.050e+0, 2.858e-1
6.060e+0, 2.864e-1
6.070e+0, 2.870e-1
6.080e+0, 2.876e-1
6.090e+0, 2.882e-1
6.100e+0, 2.888e-1
6.110e+0, 2.894e-1
6.120e+0, 2.900e-1
6.130e+0, 2.907e-1
6.140e+0, 2.913e-1
6.150e+0, 2.920e-1
6.160e+0, 2.926e-1
6.170e+0, 2.933e-1
6.180e+0, 2.940e-1
6.190e+0, 2.946e-1
6.200e+0, 2.953e-1
6.210e+0, 2.960e-1
6.220e+0, 2.967e-1
6.230e+0, 2.974e-1
6.240e+0, 2.982e-1
6.250e+0, 2.989e-1
6.260e+0, 2.996e-1
6.270e+0, 3.004e-1
6.280e+0, 3.011e-1
6.290e+0, 3.019e-1
6.300e+0, 3.027e-1
6.310e+0, 3.035e-1
6.320e+0, 3.043e-1
6.330e+0, 3.051e-1
6.340e+0, 3.059e-1
6.350e+0, 3.067e-1
6.360e+0, 3.075e-1
6.370e+0, 3.084e-1
6.380e+0, 3.092e-1
6.390e+0, 3.101e-1
6.400e+0, 3.110e-1
6.410e+0, 3.119e-1
6.420e+0, 3.127e-1
6.430e+0, 3.136e-1
6.440e+0, 3.146e-1
6.450e+0, 3.155e-1
6.460e+0, 3.164e-1
6.470e+0, 3.174e-1
6.480e+0, 3.183e-1
6.490e+0, 3.193e-1
6.500e+0, 3.203e-1
6.510e+0, 3.213e-1
6.520e+0, 3.223e-1
6.530e+0, 3.233e-1
6.540e+0, 3.243e-1
6.550e+0, 3.253e-1
6.560e+0, 3.264e-1
6.570e+0, 3.274e-1
6.580e+0, 3.285e-1
6.590e+0, 3.296e-1
6.600e+0, 3.306e-1
6.610e+0, 3.317e-1
6.620e+0, 3.328e-1
6.630e+0, 3.339e-1
6.640e+0, 3.351e-1
6.650e+0, 3.362e-1
6.660e+0, 3.373e-1
6.670e+0, 3.385e-1
6.680e+0, 3.397e-1
6.690e+0, 3.408e-1
6.700e+0, 3.420e-1
6.710e+0, 3.432e-1
6.720e+0, 3.444e-1
6.730e+0, 3.456e-1
6.740e+0, 3.468e-1
6.750e+0, 3.480e-1
6.760e+0, 3.492e-1
6.770e+0, 3.505e-1
6.780e+0, 3.517e-1
6.790e+0, 3.530e-1
6.800e+0, 3.542e-1
6.810e+0, 3.555e-1
6.820e+0, 3.568e-1
6.830e+0, 3.580e-1
6.840e+0, 3.593e-1
6.850e+0, 3.606e-1
6.860e+0, 3.619e-1
6.870e+0, 3.632e-1
6.880e+0, 3.645e-1
6.890e+0, 3.658e-1
6.900e+0, 3.671e-1
6.910e+0, 3.685e-1
6.920e+0, 3.698e-1
6.930e+0, 3.711e-1
6.940e+0, 3.725e-1
6.950e+0, 3.738e-1
6.960e+0, 3.751e-1
6.970e+0, 3.765e-1
6.980e+0, 3.778e-1
6.990e+0, 3.792e-1
7.000e+0, 3.806e-1
7.010e+0, 3.819e-1
7.020e+0, 3.833e-1
7.030e+0, 3.847e-1
7.040e+0, 3.860e-1
7.050e+0, 3.874e-1
7.060e+0, 3.888e-1
7.070e+0, 3.902e-1
7.080e+0, 3.915e-1
7.090e+0, 3.929e-1
7.100e+0, 3.943e-1
7.110e+0, 3.957e-1
7.120e+0, 3.971e-1
7.130e+0, 3.985e-1
7.140e+0, 3.999e-1
7.150e+0, 4.013e-1
7.160e+0, 4.027e-1
7.170e+0, 4.040e-1
7.180e+0, 4.054e-1
7.190e+0, 4.068e-1
7.200e+0, 4.082e-1
7.210e+0, 4.096e-1
7.220e+0, 4.110e-1
7.230e+0, 4.124e-1
7.240e+0, 4.138e-1
7.250e+0, 4.152e-1
7.260e+0, 4.166e-1
7.270e+0, 4.180e-1
7.280e+0, 4.194e-1
7.290e+0, 4.208e-1
7.300e+0, 4.222e-1
7.310e+0, 4.236e-1
7.320e+0, 4.250e-1
7.330e+0, 4.264e-1
7.340e+0, 4.278e-1
7.350e+0, 4.292e-1
7.360e+0, 4.306e-1
7.370e+0, 4.320e-1
7.380e+0, 4.334e-1
7.390e+0, 4.347e-1
7.400e+0, 4.361e-1
7.410e+0, 4.375e-1
7.420e+0, 4.389e-1
7.430e+0, 4.403e-1
7.440e+0, 4.417e-1
7.450e+0, 4.430e-1
7.460e+0, 4.444e-1
7.470e+0, 4.458e-1
7.480e+0, 4.472e-1
7.490e+0, 4.486e-1
7.500e+0, 4.499e-1
7.510e+0, 4.513e-1
7.520e+0, 4.527e-1
7.530e+0, 4.540e-1
7.540e+0, 4.554e-1
7.550e+0, 4.568e-1
7.560e+0, 4.581e-1
7.570e+0, 4.595e-1
7.580e+0, 4.609e-1
7.590e+0, 4.622e-1
7.600e+0, 4.636e-1
7.610e+0, 4.649e-1
7.620e+0, 4.663e-1
7.630e+0, 4.676e-1
7.640e+0, 4.690e-1
7.650e+0, 4.703e-1
7.660e+0, 4.716e-1
7.670e+0, 4.730e-1
7.680e+0, 4.743e-1
7.690e+0, 4.756e-1
7.700e+0, 4.770e-1
7.710e+0, 4.783e-1
7.720e+0, 4.796e-1
7.730e+0, 4.809e-1
7.740e+0, 4.823e-1
7.750e+0, 4.836e-1
7.760e+0, 4.849e-1
7.770e+0, 4.862e-1
7.780e+0, 4.875e-1
7.790e+0, 4.888e-1
7.800e+0, 4.901e-1
7.810e+0, 4.914e-1
7.820e+0, 4.927e-1
7.830e+0, 4.940e-1
7.840e+0, 4.953e-1
7.850e+0, 4.966e-1
7.860e+0, 4.979e-1
7.870e+0, 4.991e-1
7.880e+0, 4.774e-1
7.890e+0, 4.489e-1
7.900e+0, 4.269e-1
7.910e+0, 4.082e-1
7.920e+0, 3.915e-1
7.930e+0, 3.765e-1
7.940e+0, 3.628e-1
7.950e+0, 3.503e-1
7.960e+0, 3.389e-1
7.970e+0, 3.287e-1
7.980e+0, 3.196e-1
7.990e+0, 3.116e-1
8.000e+0, 3.046e-1
8.010e+0, 2.985e-1
8.020e+0, 2.932e-1
8.030e+0, 2.886e-1
8.040e+0, 2.845e-1
8.050e+0, 2.808e-1
8.060e+0, 2.776e-1
8.070e+0, 2.747e-1
8.080e+0, 2.720e-1
8.090e+0, 2.696e-1
8.100e+0, 2.673e-1
8.110e+0, 2.653e-1
8.120e+0, 2.634e-1
8.130e+0, 2.616e-1
8.140e+0, 2.599e-1
8.150e+0, 2.583e-1
8.160e+0, 2.568e-1
8.170e+0, 2.554e-1
8.180e+0, 2.541e-1
8.190e+0, 2.528e-1
8.200e+0, 2.516e-1
8.210e+0, 2.504e-1
8.220e+0, 2.493e-1
8.230e+0, 2.483e-1
8.240e+0, 2.472e-1
8.250e+0, 2.462e-1
8.260e+0, 2.453e-1
8.270e+0, 2.444e-1
8.280e+0, 2.435e-1
8.290e+0, 2.426e-1
8.300e+0, 2.418e-1
8.310e+0, 2.410e-1
8.320e+0, 2.402e-1
8.330e+0, 2.394e-1
8.340e+0, 2.386e-1
8.350e+0, 2.379e-1
8.360e+0, 2.372e-1
8.370e+0, 2.365e-1
8.380e+0, 2.358e-1
8.390e+0, 2.352e-1
8.400e+0, 2.345e-1
8.410e+0, 2.339e-1
8.420e+0, 2.333e-1
8.430e+0, 2.326e-1
8.440e+0, 2.321e-1
8.450e+0, 2.315e-1
8.460e+0, 2.309e-1
8.470e+0, 2.303e-1
8.480e+0, 2.298e-1
8.490e+0, 2.292e-1
8.500e+0, 2.287e-1
8.510e+0, 2.281e-1
8.520e+0, 2.276e-1
8.530e+0, 2.271e-1
8.540e+0, 2.266e-1
8.550e+0, 2.261e-1
8.560e+0, 2.256e-1
8.570e+0, 2.251e-1
8.580e+0, 2.247e-1
8.590e+0, 2.242e-1
8.600e+0, 2.237e-1
8.610e+0, 2.233e-1
8.620e+0, 2.228e-1
8.630e+0, 2.224e-1
8.640e+0, 2.219e-1
8.650e+0, 2.215e-1
8.660e+0, 2.210e-1
8.670e+0, 2.206e-1
8.680e+0, 2.202e-1
8.690e+0, 2.198e-1
8.700e+0, 2.193e-1
8.710e+0, 2.189e-1
8.720e+0, 2.185e-1
8.730e+0, 2.181e-1
8.740e+0, 2.177e-1
8.750e+0, 2.173e-1
8.760e+0, 2.169e-1
8.770e+0, 2.165e-1
8.780e+0, 2.162e-1
8.790e+0, 2.158e-1
8.800e+0, 2.154e-1
8.810e+0, 2.150e-1
8.820e+0, 2.147e-1
8.830e+0, 2.143e-1
8.840e+0, 2.139e-1
8.850e+0, 2.135e-1
8.860e+0, 2.132e-1
8.870e+0, 2.128e-1
8.880e+0, 2.125e-1
8.890e+0, 2.121e-1
8.900e+0, 2.118e-1
8.910e+0, 2.114e-1
8.920e+0, 2.111e-1
8.930e+0, 2.107e-1
8.940e+0, 2.104e-1
8.950e+0, 2.100e-1
8.960e+0, 2.097e-1
8.970e+0, 2.094e-1
8.980e+0, 2.090e-1
8.990e+0, 2.087e-1
9.000e+0, 2.084e-1
9.010e+0, 2.080e-1
9.020e+0, 2.077e-1
9.030e+0, 2.074e-1
9.040e+0, 2.070e-1
9.050e+0, 2.067e-1
9.060e+0, 2.064e-1
9.070e+0, 2.061e-1
9.080e+0, 2.058e-1
9.090e+0, 2.054e-1
9.100e+0, 2.051e-1
9.110e+0, 2.048e-1
9.120e+0, 2.045e-1
9.130e+0, 2.042e-1
9.140e+0, 2.039e-1
9.150e+0, 2.035e-1
9.160e+0, 2.032e-1
9.170e+0, 2.029e-1
9.180e+0, 2.026e-1
9.190e+0, 2.023e-1
9.200e+0, 2.020e-1
9.210e+0, 2.017e-1
9.220e+0, 2.014e-1
9.230e+0, 2.011e-1
9.240e+0, 2.008e-1
9.250e+0, 2.005e-1
9.260e+0, 2.002e-1
9.270e+0, 1.999e-1
9.280e+0, 1.996e-1
9.290e+0, 1.993e-1
9.300e+0, 1.990e-1
9.310e+0, 1.987e-1
9.320e+0, 1.984e-1
9.330e+0, 1.981e-1
9.340e+0, 1.978e-1
9.350e+0, 1.975e-1
9.360e+0, 1.972e-1
9.370e+0, 1.970e-1
9.380e+0, 1.967e-1
9.390e+0, 1.964e-1
9.400e+0, 1.961e-1
9.410e+0, 1.958e-1
9.420e+0, 1.955e-1
9.430e+0, 1.952e-1
9.440e+0, 1.949e-1
9.450e+0, 1.946e-1
9.460e+0, 1.943e-1
9.470e+0, 1.941e-1
9.480e+0, 1.938e-1
9.490e+0, 1.935e-1
9.500e+0, 1.932e-1
9.510e+0, 1.929e-1
9.520e+0, 1.926e-1
9.530e+0, 1.923e-1
9.540e+0, 1.920e-1
9.550e+0, 1.918e-1
9.560e+0, 1.915e-1
9.570e+0, 1.912e-1
9.580e+0, 1.909e-1
9.590e+0, 1.906e-1
9.600e+0, 1.903e-1
9.610e+0, 1.901e-1
9.620e+0, 1.898e-1
9.630e+0, 1.895e-1
9.640e+0, 1.892e-1
9.650e+0, 1.889e-1
9.660e+0, 1.886e-1
9.670e+0, 1.883e-1
9.680e+0, 1.880e-1
9.690e+0, 1.878e-1
9.700e+0, 1.875e-1
9.710e+0, 1.872e-1
9.720e+0, 1.869e-1
9.730e+0, 1.866e-1
9.740e+0, 1.863e-1
9.750e+0, 1.860e-1
9.760e+0, 1.858e-1
9.770e+0, 1.855e-1
9.780e+0, 1.852e-1
9.790e+0, 1.849e-1
9.800e+0, 1.846e-1
9.810e+0, 1.843e-1
9.820e+0, 1.841e-1
9.830e+0, 1.838e-1
9.840e+0, 1.835e-1
9.850e+0, 1.832e-1
9.860e+0, 1.829e-1
9.870e+0, 1.826e-1
9.880e+0, 1.823e-1
9.890e+0, 1.820e-1
9.900e+0, 1.817e-1
9.910e+0, 1.815e-1
9.920e+0, 1.812e-1
9.930e+0, 1.809e-1
9.940e+0, 1.806e-1
9.950e+0, 1.803e-1
9.960e+0, 1.800e-1
9.970e+0, 1.797e-1
9.980e+0, 1.794e-1
9.990e+0, 1.791e-1
1.000e+1, 1.788e-1
1.001e+1, 1.785e-1
1.002e+1, 1.782e-1
1.003e+1, 1.779e-1
1.004e+1, 1.776e-1
1.005e+1, 1.773e-1
1.006e+1, 1.770e-1
1.007e+1, 1.767e-1
1.008e+1, 1.764e-1
1.009e+1, 1.761e-1
1.010e+1, 1.758e-1
1.011e+1, 1.755e-1
1.012e+1, 1.752e-1
1.013e+1, 1.749e-1
1.014e+1, 1.746e-1
1.015e+1, 1.743e-1
1.016e+1, 1.740e-1
1.017e+1, 1.737e-1
1.018e+1, 1.734e-1
1.019e+1, 1.731e-1
1.020e+1, 1.728e-1
1.021e+1, 1.724e-1
1.022e+1, 1.721e-1
1.023e+1, 1.718e-1
1.024e+1, 1.715e-1
1.025e+1, 1.712e-1
1.026e+1, 1.709e-1
1.027e+1, 1.706e-1
